;content of D:\data\result\mecham\???\20231225-89741\600-02.raw - (Diffrac Plus V4 file)
_FILEVERSION = 3
_SAMPLE
_+SAMPLE
_USER = Lab Manager
_GONIOMETER_CODE = 21
_STAGE_CODE = 7
; Goniometer : D8 theta/theta, stage : Chi drive
_SAMPLE_CHANGER_CODE = 0
_ATTACHMENTS_CODE = 0
_GONIOMETER_RADIUS = 280
_MONOCHROMATOR = 0
; Incident beam monochromator : None
_BETA_FILTER = N
_ANALYZER_CODE = 0
; Received beam analyzer : None
_DATEMEASURED = 25-Dec-2023 10:24:13
_RUNTIME = 11.18869
_WL_UNIT = A
_WL1 = 1.5406
_WL2 = 1.54439
_WL3 = 1.39222
_WLRATIO = 0.5
_ANODE = Cu
_V4_INF_USER = Lab Manager
_V4_INF_CREATOR = V5Converter
_V4_INF_CREATOR_VERSION = 4.4.16.0

; Data for range 1
_DRIVE = COUPLED
_STEPTIME = 57.6
_STEPSIZE = 0.019721
_STEPMODE = C
_START = 20
_THETA = 10
_2THETA = 20
_KHI = 0
_PHI = 0
_DETECTORSLIT = out
_AUX1 = 0
_TIMESTARTED = 0
_KV = 40
_MA = 40
_RANGE_WL = 1.5406
_3DPLANE = 0
_V4_PSD2THETA = 9999
_V4_PSDCHANNEL1 = 0
_V4_PSDAPERTURE = 2.839876
_V4_PSDTYPE = 5
_V4_PSDFIXED = 0
_V4_COUNTERS_MASK = 1
_V4_DRIVES_MASK = 0
_V4_ENCODERS_MASK = 0
_2THETACOUNTS = 1
; 2THETA	Cnt2_D1	
20.000000	551.000000	
20.019721	560.000000	
20.039443	502.000000	
20.059164	531.000000	
20.078885	557.000000	
20.098607	498.000000	
20.118328	579.000000	
20.138050	589.000000	
20.157771	555.000000	
20.177492	558.000000	
20.197214	575.000000	
20.216935	551.000000	
20.236656	551.000000	
20.256378	517.000000	
20.276099	526.000000	
20.295820	530.000000	
20.315542	556.000000	
20.335263	587.000000	
20.354985	553.000000	
20.374706	540.000000	
20.394427	539.000000	
20.414149	500.000000	
20.433870	565.000000	
20.453591	580.000000	
20.473313	534.000000	
20.493034	548.000000	
20.512755	517.000000	
20.532477	538.000000	
20.552198	562.000000	
20.571920	556.000000	
20.591641	557.000000	
20.611362	504.000000	
20.631084	587.000000	
20.650805	488.000000	
20.670526	546.000000	
20.690248	541.000000	
20.709969	533.000000	
20.729690	563.000000	
20.749412	539.000000	
20.769133	560.000000	
20.788855	553.000000	
20.808576	525.000000	
20.828297	563.000000	
20.848019	571.000000	
20.867740	585.000000	
20.887461	582.000000	
20.907183	528.000000	
20.926904	551.000000	
20.946625	541.000000	
20.966347	565.000000	
20.986068	555.000000	
21.005790	535.000000	
21.025511	534.000000	
21.045232	539.000000	
21.064954	503.000000	
21.084675	587.000000	
21.104396	547.000000	
21.124118	536.000000	
21.143839	559.000000	
21.163560	572.000000	
21.183282	544.000000	
21.203003	517.000000	
21.222725	525.000000	
21.242446	566.000000	
21.262167	562.000000	
21.281889	530.000000	
21.301610	555.000000	
21.321331	503.000000	
21.341053	552.000000	
21.360774	574.000000	
21.380495	527.000000	
21.400217	541.000000	
21.419938	511.000000	
21.439660	558.000000	
21.459381	548.000000	
21.479102	535.000000	
21.498824	557.000000	
21.518545	523.000000	
21.538266	558.000000	
21.557988	549.000000	
21.577709	497.000000	
21.597430	552.000000	
21.617152	535.000000	
21.636873	543.000000	
21.656595	544.000000	
21.676316	553.000000	
21.696037	589.000000	
21.715759	531.000000	
21.735480	543.000000	
21.755201	564.000000	
21.774923	557.000000	
21.794644	585.000000	
21.814365	531.000000	
21.834087	546.000000	
21.853808	548.000000	
21.873530	579.000000	
21.893251	517.000000	
21.912972	568.000000	
21.932694	573.000000	
21.952415	571.000000	
21.972136	537.000000	
21.991858	559.000000	
22.011579	546.000000	
22.031300	562.000000	
22.051022	539.000000	
22.070743	595.000000	
22.090465	544.000000	
22.110186	525.000000	
22.129907	548.000000	
22.149629	503.000000	
22.169350	539.000000	
22.189071	523.000000	
22.208793	532.000000	
22.228514	557.000000	
22.248235	563.000000	
22.267957	559.000000	
22.287678	519.000000	
22.307400	487.000000	
22.327121	560.000000	
22.346842	562.000000	
22.366564	570.000000	
22.386285	579.000000	
22.406006	564.000000	
22.425728	520.000000	
22.445449	578.000000	
22.465170	572.000000	
22.484892	526.000000	
22.504613	526.000000	
22.524335	544.000000	
22.544056	574.000000	
22.563777	577.000000	
22.583499	507.000000	
22.603220	527.000000	
22.622941	541.000000	
22.642663	608.000000	
22.662384	563.000000	
22.682105	502.000000	
22.701827	596.000000	
22.721548	545.000000	
22.741270	561.000000	
22.760991	552.000000	
22.780712	528.000000	
22.800434	546.000000	
22.820155	551.000000	
22.839876	553.000000	
22.859598	526.000000	
22.879319	550.000000	
22.899040	533.000000	
22.918762	535.000000	
22.938483	551.000000	
22.958205	556.000000	
22.977926	532.000000	
22.997647	583.000000	
23.017369	550.000000	
23.037090	537.000000	
23.056811	531.000000	
23.076533	520.000000	
23.096254	528.000000	
23.115975	553.000000	
23.135697	539.000000	
23.155418	546.000000	
23.175140	558.000000	
23.194861	495.000000	
23.214582	558.000000	
23.234304	503.000000	
23.254025	551.000000	
23.273746	519.000000	
23.293468	596.000000	
23.313189	531.000000	
23.332910	563.000000	
23.352632	567.000000	
23.372353	575.000000	
23.392075	536.000000	
23.411796	526.000000	
23.431517	575.000000	
23.451239	548.000000	
23.470960	543.000000	
23.490681	579.000000	
23.510403	572.000000	
23.530124	566.000000	
23.549845	499.000000	
23.569567	502.000000	
23.589288	546.000000	
23.609010	539.000000	
23.628731	591.000000	
23.648452	528.000000	
23.668174	477.000000	
23.687895	544.000000	
23.707616	569.000000	
23.727338	544.000000	
23.747059	526.000000	
23.766780	538.000000	
23.786502	519.000000	
23.806223	551.000000	
23.825945	577.000000	
23.845666	586.000000	
23.865387	538.000000	
23.885109	556.000000	
23.904830	595.000000	
23.924551	544.000000	
23.944273	544.000000	
23.963994	533.000000	
23.983715	592.000000	
24.003437	555.000000	
24.023158	549.000000	
24.042880	528.000000	
24.062601	560.000000	
24.082322	570.000000	
24.102044	547.000000	
24.121765	542.000000	
24.141486	579.000000	
24.161208	595.000000	
24.180929	601.000000	
24.200650	617.000000	
24.220372	574.000000	
24.240093	621.000000	
24.259815	639.000000	
24.279536	612.000000	
24.299257	702.000000	
24.318979	696.000000	
24.338700	692.000000	
24.358421	731.000000	
24.378143	724.000000	
24.397864	680.000000	
24.417586	698.000000	
24.437307	745.000000	
24.457028	766.000000	
24.476750	725.000000	
24.496471	654.000000	
24.516192	698.000000	
24.535914	694.000000	
24.555635	650.000000	
24.575356	610.000000	
24.595078	618.000000	
24.614799	595.000000	
24.634521	619.000000	
24.654242	648.000000	
24.673963	632.000000	
24.693685	584.000000	
24.713406	581.000000	
24.733127	583.000000	
24.752849	573.000000	
24.772570	546.000000	
24.792291	590.000000	
24.812013	552.000000	
24.831734	550.000000	
24.851456	561.000000	
24.871177	564.000000	
24.890898	579.000000	
24.910620	602.000000	
24.930341	568.000000	
24.950062	550.000000	
24.969784	519.000000	
24.989505	533.000000	
25.009226	492.000000	
25.028948	515.000000	
25.048669	568.000000	
25.068391	569.000000	
25.088112	564.000000	
25.107833	563.000000	
25.127555	556.000000	
25.147276	584.000000	
25.166997	526.000000	
25.186719	549.000000	
25.206440	563.000000	
25.226161	593.000000	
25.245883	587.000000	
25.265604	553.000000	
25.285326	551.000000	
25.305047	548.000000	
25.324768	592.000000	
25.344490	536.000000	
25.364211	512.000000	
25.383932	536.000000	
25.403654	586.000000	
25.423375	568.000000	
25.443096	596.000000	
25.462818	527.000000	
25.482539	549.000000	
25.502261	576.000000	
25.521982	615.000000	
25.541703	534.000000	
25.561425	587.000000	
25.581146	564.000000	
25.600867	515.000000	
25.620589	517.000000	
25.640310	540.000000	
25.660031	533.000000	
25.679753	542.000000	
25.699474	524.000000	
25.719196	537.000000	
25.738917	599.000000	
25.758638	512.000000	
25.778360	539.000000	
25.798081	581.000000	
25.817802	554.000000	
25.837524	518.000000	
25.857245	519.000000	
25.876966	536.000000	
25.896688	572.000000	
25.916409	508.000000	
25.936131	545.000000	
25.955852	535.000000	
25.975573	530.000000	
25.995295	551.000000	
26.015016	549.000000	
26.034737	544.000000	
26.054459	536.000000	
26.074180	582.000000	
26.093901	552.000000	
26.113623	556.000000	
26.133344	555.000000	
26.153066	545.000000	
26.172787	566.000000	
26.192508	550.000000	
26.212230	559.000000	
26.231951	524.000000	
26.251672	575.000000	
26.271394	524.000000	
26.291115	569.000000	
26.310836	564.000000	
26.330558	541.000000	
26.350279	581.000000	
26.370001	556.000000	
26.389722	548.000000	
26.409443	538.000000	
26.429165	534.000000	
26.448886	540.000000	
26.468607	501.000000	
26.488329	499.000000	
26.508050	543.000000	
26.527771	567.000000	
26.547493	549.000000	
26.567214	530.000000	
26.586936	542.000000	
26.606657	504.000000	
26.626378	581.000000	
26.646100	608.000000	
26.665821	612.000000	
26.685542	586.000000	
26.705264	550.000000	
26.724985	551.000000	
26.744706	561.000000	
26.764428	565.000000	
26.784149	577.000000	
26.803871	570.000000	
26.823592	536.000000	
26.843313	534.000000	
26.863035	585.000000	
26.882756	558.000000	
26.902477	549.000000	
26.922199	592.000000	
26.941920	563.000000	
26.961641	566.000000	
26.981363	561.000000	
27.001084	563.000000	
27.020806	570.000000	
27.040527	546.000000	
27.060248	559.000000	
27.079970	530.000000	
27.099691	518.000000	
27.119412	540.000000	
27.139134	499.000000	
27.158855	533.000000	
27.178576	563.000000	
27.198298	537.000000	
27.218019	553.000000	
27.237741	526.000000	
27.257462	552.000000	
27.277183	520.000000	
27.296905	585.000000	
27.316626	560.000000	
27.336347	497.000000	
27.356069	561.000000	
27.375790	537.000000	
27.395511	543.000000	
27.415233	568.000000	
27.434954	553.000000	
27.454676	548.000000	
27.474397	575.000000	
27.494118	520.000000	
27.513840	520.000000	
27.533561	549.000000	
27.553282	557.000000	
27.573004	477.000000	
27.592725	575.000000	
27.612446	583.000000	
27.632168	529.000000	
27.651889	553.000000	
27.671611	574.000000	
27.691332	538.000000	
27.711053	578.000000	
27.730775	547.000000	
27.750496	551.000000	
27.770217	571.000000	
27.789939	507.000000	
27.809660	546.000000	
27.829381	550.000000	
27.849103	549.000000	
27.868824	562.000000	
27.888546	573.000000	
27.908267	525.000000	
27.927988	527.000000	
27.947710	574.000000	
27.967431	543.000000	
27.987152	560.000000	
28.006874	587.000000	
28.026595	548.000000	
28.046316	574.000000	
28.066038	547.000000	
28.085759	511.000000	
28.105481	570.000000	
28.125202	550.000000	
28.144923	525.000000	
28.164645	547.000000	
28.184366	574.000000	
28.204087	552.000000	
28.223809	573.000000	
28.243530	546.000000	
28.263251	554.000000	
28.282973	601.000000	
28.302694	554.000000	
28.322416	493.000000	
28.342137	553.000000	
28.361858	567.000000	
28.381580	560.000000	
28.401301	513.000000	
28.421022	516.000000	
28.440744	525.000000	
28.460465	574.000000	
28.480186	533.000000	
28.499908	523.000000	
28.519629	524.000000	
28.539351	534.000000	
28.559072	554.000000	
28.578793	534.000000	
28.598515	550.000000	
28.618236	553.000000	
28.637957	522.000000	
28.657679	583.000000	
28.677400	578.000000	
28.697121	637.000000	
28.716843	578.000000	
28.736564	476.000000	
28.756286	546.000000	
28.776007	583.000000	
28.795728	555.000000	
28.815450	505.000000	
28.835171	535.000000	
28.854892	592.000000	
28.874614	528.000000	
28.894335	556.000000	
28.914056	539.000000	
28.933778	514.000000	
28.953499	573.000000	
28.973221	518.000000	
28.992942	558.000000	
29.012663	577.000000	
29.032385	550.000000	
29.052106	554.000000	
29.071827	536.000000	
29.091549	520.000000	
29.111270	575.000000	
29.130991	518.000000	
29.150713	569.000000	
29.170434	532.000000	
29.190156	565.000000	
29.209877	551.000000	
29.229598	583.000000	
29.249320	602.000000	
29.269041	539.000000	
29.288762	501.000000	
29.308484	545.000000	
29.328205	558.000000	
29.347926	542.000000	
29.367648	580.000000	
29.387369	525.000000	
29.407091	536.000000	
29.426812	529.000000	
29.446533	520.000000	
29.466255	488.000000	
29.485976	544.000000	
29.505697	576.000000	
29.525419	539.000000	
29.545140	566.000000	
29.564861	531.000000	
29.584583	580.000000	
29.604304	584.000000	
29.624026	549.000000	
29.643747	518.000000	
29.663468	537.000000	
29.683190	532.000000	
29.702911	557.000000	
29.722632	526.000000	
29.742354	621.000000	
29.762075	540.000000	
29.781796	550.000000	
29.801518	579.000000	
29.821239	573.000000	
29.840961	542.000000	
29.860682	550.000000	
29.880403	518.000000	
29.900125	542.000000	
29.919846	562.000000	
29.939567	564.000000	
29.959289	564.000000	
29.979010	563.000000	
29.998731	584.000000	
30.018453	563.000000	
30.038174	572.000000	
30.057896	603.000000	
30.077617	535.000000	
30.097338	621.000000	
30.117060	553.000000	
30.136781	643.000000	
30.156502	561.000000	
30.176224	556.000000	
30.195945	585.000000	
30.215666	612.000000	
30.235388	611.000000	
30.255109	591.000000	
30.274831	620.000000	
30.294552	582.000000	
30.314273	561.000000	
30.333995	561.000000	
30.353716	585.000000	
30.373437	562.000000	
30.393159	547.000000	
30.412880	581.000000	
30.432601	566.000000	
30.452323	537.000000	
30.472044	529.000000	
30.491766	602.000000	
30.511487	543.000000	
30.531208	561.000000	
30.550930	563.000000	
30.570651	544.000000	
30.590372	562.000000	
30.610094	572.000000	
30.629815	534.000000	
30.649536	557.000000	
30.669258	561.000000	
30.688979	574.000000	
30.708701	588.000000	
30.728422	561.000000	
30.748143	553.000000	
30.767865	538.000000	
30.787586	574.000000	
30.807307	536.000000	
30.827029	529.000000	
30.846750	558.000000	
30.866471	568.000000	
30.886193	553.000000	
30.905914	544.000000	
30.925636	576.000000	
30.945357	569.000000	
30.965078	522.000000	
30.984800	579.000000	
31.004521	559.000000	
31.024242	561.000000	
31.043964	595.000000	
31.063685	544.000000	
31.083406	576.000000	
31.103128	539.000000	
31.122849	557.000000	
31.142571	529.000000	
31.162292	573.000000	
31.182013	552.000000	
31.201735	540.000000	
31.221456	616.000000	
31.241177	557.000000	
31.260899	529.000000	
31.280620	577.000000	
31.300341	543.000000	
31.320063	527.000000	
31.339784	547.000000	
31.359506	576.000000	
31.379227	572.000000	
31.398948	556.000000	
31.418670	581.000000	
31.438391	548.000000	
31.458112	522.000000	
31.477834	556.000000	
31.497555	538.000000	
31.517276	526.000000	
31.536998	525.000000	
31.556719	497.000000	
31.576441	534.000000	
31.596162	552.000000	
31.615883	534.000000	
31.635605	575.000000	
31.655326	545.000000	
31.675047	561.000000	
31.694769	520.000000	
31.714490	553.000000	
31.734211	543.000000	
31.753933	550.000000	
31.773654	547.000000	
31.793376	601.000000	
31.813097	487.000000	
31.832818	578.000000	
31.852540	575.000000	
31.872261	534.000000	
31.891982	560.000000	
31.911704	593.000000	
31.931425	592.000000	
31.951146	556.000000	
31.970868	560.000000	
31.990589	525.000000	
32.010311	559.000000	
32.030032	552.000000	
32.049753	527.000000	
32.069475	541.000000	
32.089196	560.000000	
32.108917	533.000000	
32.128639	573.000000	
32.148360	520.000000	
32.168081	574.000000	
32.187803	575.000000	
32.207524	543.000000	
32.227246	585.000000	
32.246967	568.000000	
32.266688	540.000000	
32.286410	627.000000	
32.306131	550.000000	
32.325852	544.000000	
32.345574	530.000000	
32.365295	591.000000	
32.385016	544.000000	
32.404738	559.000000	
32.424459	548.000000	
32.444181	553.000000	
32.463902	569.000000	
32.483623	584.000000	
32.503345	574.000000	
32.523066	562.000000	
32.542787	572.000000	
32.562509	540.000000	
32.582230	549.000000	
32.601951	576.000000	
32.621673	590.000000	
32.641394	529.000000	
32.661116	521.000000	
32.680837	585.000000	
32.700558	570.000000	
32.720280	586.000000	
32.740001	533.000000	
32.759722	587.000000	
32.779444	546.000000	
32.799165	594.000000	
32.818886	562.000000	
32.838608	548.000000	
32.858329	565.000000	
32.878051	571.000000	
32.897772	561.000000	
32.917493	549.000000	
32.937215	566.000000	
32.956936	525.000000	
32.976657	543.000000	
32.996379	559.000000	
33.016100	572.000000	
33.035821	556.000000	
33.055543	545.000000	
33.075264	595.000000	
33.094986	563.000000	
33.114707	576.000000	
33.134428	589.000000	
33.154150	574.000000	
33.173871	590.000000	
33.193592	625.000000	
33.213314	576.000000	
33.233035	608.000000	
33.252757	601.000000	
33.272478	635.000000	
33.292199	660.000000	
33.311921	600.000000	
33.331642	685.000000	
33.351363	719.000000	
33.371085	713.000000	
33.390806	754.000000	
33.410527	717.000000	
33.430249	768.000000	
33.449970	768.000000	
33.469692	702.000000	
33.489413	789.000000	
33.509134	717.000000	
33.528856	692.000000	
33.548577	732.000000	
33.568298	711.000000	
33.588020	704.000000	
33.607741	656.000000	
33.627462	662.000000	
33.647184	636.000000	
33.666905	635.000000	
33.686627	644.000000	
33.706348	632.000000	
33.726069	602.000000	
33.745791	609.000000	
33.765512	638.000000	
33.785233	631.000000	
33.804955	624.000000	
33.824676	584.000000	
33.844397	576.000000	
33.864119	596.000000	
33.883840	584.000000	
33.903562	592.000000	
33.923283	572.000000	
33.943004	576.000000	
33.962726	588.000000	
33.982447	579.000000	
34.002168	552.000000	
34.021890	565.000000	
34.041611	551.000000	
34.061332	573.000000	
34.081054	535.000000	
34.100775	549.000000	
34.120497	541.000000	
34.140218	542.000000	
34.159939	530.000000	
34.179661	552.000000	
34.199382	553.000000	
34.219103	510.000000	
34.238825	607.000000	
34.258546	578.000000	
34.278267	581.000000	
34.297989	595.000000	
34.317710	548.000000	
34.337432	573.000000	
34.357153	544.000000	
34.376874	602.000000	
34.396596	538.000000	
34.416317	552.000000	
34.436038	515.000000	
34.455760	602.000000	
34.475481	559.000000	
34.495202	576.000000	
34.514924	574.000000	
34.534645	514.000000	
34.554367	583.000000	
34.574088	577.000000	
34.593809	569.000000	
34.613531	585.000000	
34.633252	569.000000	
34.652973	581.000000	
34.672695	572.000000	
34.692416	532.000000	
34.712137	609.000000	
34.731859	526.000000	
34.751580	557.000000	
34.771302	557.000000	
34.791023	561.000000	
34.810744	529.000000	
34.830466	564.000000	
34.850187	577.000000	
34.869908	600.000000	
34.889630	560.000000	
34.909351	549.000000	
34.929072	575.000000	
34.948794	579.000000	
34.968515	522.000000	
34.988237	588.000000	
35.007958	612.000000	
35.027679	587.000000	
35.047401	561.000000	
35.067122	581.000000	
35.086843	608.000000	
35.106565	576.000000	
35.126286	577.000000	
35.146007	562.000000	
35.165729	575.000000	
35.185450	553.000000	
35.205172	588.000000	
35.224893	573.000000	
35.244614	601.000000	
35.264336	573.000000	
35.284057	565.000000	
35.303778	616.000000	
35.323500	592.000000	
35.343221	562.000000	
35.362942	590.000000	
35.382664	574.000000	
35.402385	574.000000	
35.422107	576.000000	
35.441828	581.000000	
35.461549	627.000000	
35.481271	635.000000	
35.500992	603.000000	
35.520713	637.000000	
35.540435	637.000000	
35.560156	618.000000	
35.579877	644.000000	
35.599599	615.000000	
35.619320	607.000000	
35.639042	638.000000	
35.658763	646.000000	
35.678484	644.000000	
35.698206	628.000000	
35.717927	655.000000	
35.737648	646.000000	
35.757370	667.000000	
35.777091	646.000000	
35.796812	641.000000	
35.816534	662.000000	
35.836255	676.000000	
35.855977	696.000000	
35.875698	618.000000	
35.895419	643.000000	
35.915141	652.000000	
35.934862	672.000000	
35.954583	643.000000	
35.974305	677.000000	
35.994026	642.000000	
36.013747	636.000000	
36.033469	662.000000	
36.053190	663.000000	
36.072912	649.000000	
36.092633	584.000000	
36.112354	596.000000	
36.132076	618.000000	
