;content of D:\data\result\mecham\???\20231225-89741\690-07.raw - (Diffrac Plus V4 file)
_FILEVERSION = 3
_SAMPLE
_+SAMPLE
_USER = Lab Manager
_GONIOMETER_CODE = 21
_STAGE_CODE = 7
; Goniometer : D8 theta/theta, stage : Chi drive
_SAMPLE_CHANGER_CODE = 0
_ATTACHMENTS_CODE = 0
_GONIOMETER_RADIUS = 280
_MONOCHROMATOR = 0
; Incident beam monochromator : None
_BETA_FILTER = N
_ANALYZER_CODE = 0
; Received beam analyzer : None
_DATEMEASURED = 25-Dec-2023 11:22:40
_RUNTIME = 11.18933
_WL_UNIT = A
_WL1 = 1.5406
_WL2 = 1.54439
_WL3 = 1.39222
_WLRATIO = 0.5
_ANODE = Cu
_V4_INF_USER = Lab Manager
_V4_INF_CREATOR = V5Converter
_V4_INF_CREATOR_VERSION = 4.4.16.0

; Data for range 1
_DRIVE = COUPLED
_STEPTIME = 57.6
_STEPSIZE = 0.019721
_STEPMODE = C
_START = 20
_THETA = 10
_2THETA = 20
_KHI = 0
_PHI = 0
_DETECTORSLIT = out
_AUX1 = 0
_TIMESTARTED = 0
_KV = 40
_MA = 40
_RANGE_WL = 1.5406
_3DPLANE = 0
_V4_PSD2THETA = 9999
_V4_PSDCHANNEL1 = 0
_V4_PSDAPERTURE = 2.839876
_V4_PSDTYPE = 5
_V4_PSDFIXED = 0
_V4_COUNTERS_MASK = 1
_V4_DRIVES_MASK = 0
_V4_ENCODERS_MASK = 0
_2THETACOUNTS = 1
; 2THETA	Cnt2_D1	
20.000000	509.000000	
20.019721	489.000000	
20.039443	505.000000	
20.059164	436.000000	
20.078885	525.000000	
20.098607	502.000000	
20.118328	505.000000	
20.138050	473.000000	
20.157771	465.000000	
20.177492	542.000000	
20.197214	531.000000	
20.216935	541.000000	
20.236656	541.000000	
20.256378	463.000000	
20.276099	498.000000	
20.295820	487.000000	
20.315542	535.000000	
20.335263	533.000000	
20.354985	508.000000	
20.374706	492.000000	
20.394427	500.000000	
20.414149	517.000000	
20.433870	495.000000	
20.453591	461.000000	
20.473313	512.000000	
20.493034	492.000000	
20.512755	478.000000	
20.532477	478.000000	
20.552198	509.000000	
20.571920	498.000000	
20.591641	458.000000	
20.611362	440.000000	
20.631084	504.000000	
20.650805	477.000000	
20.670526	486.000000	
20.690248	502.000000	
20.709969	501.000000	
20.729690	465.000000	
20.749412	479.000000	
20.769133	522.000000	
20.788855	533.000000	
20.808576	445.000000	
20.828297	502.000000	
20.848019	495.000000	
20.867740	531.000000	
20.887461	510.000000	
20.907183	518.000000	
20.926904	474.000000	
20.946625	464.000000	
20.966347	497.000000	
20.986068	501.000000	
21.005790	495.000000	
21.025511	501.000000	
21.045232	502.000000	
21.064954	468.000000	
21.084675	482.000000	
21.104396	476.000000	
21.124118	498.000000	
21.143839	507.000000	
21.163560	494.000000	
21.183282	467.000000	
21.203003	519.000000	
21.222725	473.000000	
21.242446	472.000000	
21.262167	484.000000	
21.281889	458.000000	
21.301610	479.000000	
21.321331	492.000000	
21.341053	481.000000	
21.360774	488.000000	
21.380495	506.000000	
21.400217	502.000000	
21.419938	440.000000	
21.439660	546.000000	
21.459381	495.000000	
21.479102	470.000000	
21.498824	505.000000	
21.518545	503.000000	
21.538266	469.000000	
21.557988	507.000000	
21.577709	558.000000	
21.597430	480.000000	
21.617152	484.000000	
21.636873	478.000000	
21.656595	492.000000	
21.676316	523.000000	
21.696037	496.000000	
21.715759	504.000000	
21.735480	474.000000	
21.755201	443.000000	
21.774923	469.000000	
21.794644	497.000000	
21.814365	482.000000	
21.834087	469.000000	
21.853808	495.000000	
21.873530	477.000000	
21.893251	496.000000	
21.912972	472.000000	
21.932694	459.000000	
21.952415	472.000000	
21.972136	487.000000	
21.991858	525.000000	
22.011579	456.000000	
22.031300	501.000000	
22.051022	501.000000	
22.070743	510.000000	
22.090465	494.000000	
22.110186	487.000000	
22.129907	494.000000	
22.149629	484.000000	
22.169350	473.000000	
22.189071	486.000000	
22.208793	472.000000	
22.228514	521.000000	
22.248235	496.000000	
22.267957	503.000000	
22.287678	498.000000	
22.307400	498.000000	
22.327121	462.000000	
22.346842	481.000000	
22.366564	505.000000	
22.386285	468.000000	
22.406006	487.000000	
22.425728	475.000000	
22.445449	485.000000	
22.465170	496.000000	
22.484892	478.000000	
22.504613	491.000000	
22.524335	490.000000	
22.544056	469.000000	
22.563777	460.000000	
22.583499	458.000000	
22.603220	499.000000	
22.622941	485.000000	
22.642663	509.000000	
22.662384	494.000000	
22.682105	456.000000	
22.701827	466.000000	
22.721548	508.000000	
22.741270	479.000000	
22.760991	480.000000	
22.780712	478.000000	
22.800434	508.000000	
22.820155	464.000000	
22.839876	461.000000	
22.859598	500.000000	
22.879319	472.000000	
22.899040	480.000000	
22.918762	489.000000	
22.938483	457.000000	
22.958205	511.000000	
22.977926	483.000000	
22.997647	485.000000	
23.017369	540.000000	
23.037090	504.000000	
23.056811	516.000000	
23.076533	480.000000	
23.096254	492.000000	
23.115975	495.000000	
23.135697	478.000000	
23.155418	496.000000	
23.175140	501.000000	
23.194861	492.000000	
23.214582	493.000000	
23.234304	468.000000	
23.254025	456.000000	
23.273746	514.000000	
23.293468	496.000000	
23.313189	461.000000	
23.332910	470.000000	
23.352632	498.000000	
23.372353	486.000000	
23.392075	495.000000	
23.411796	518.000000	
23.431517	485.000000	
23.451239	512.000000	
23.470960	484.000000	
23.490681	461.000000	
23.510403	468.000000	
23.530124	496.000000	
23.549845	456.000000	
23.569567	473.000000	
23.589288	476.000000	
23.609010	485.000000	
23.628731	488.000000	
23.648452	495.000000	
23.668174	506.000000	
23.687895	524.000000	
23.707616	459.000000	
23.727338	489.000000	
23.747059	492.000000	
23.766780	503.000000	
23.786502	480.000000	
23.806223	496.000000	
23.825945	485.000000	
23.845666	501.000000	
23.865387	511.000000	
23.885109	522.000000	
23.904830	476.000000	
23.924551	504.000000	
23.944273	495.000000	
23.963994	514.000000	
23.983715	470.000000	
24.003437	498.000000	
24.023158	484.000000	
24.042880	497.000000	
24.062601	500.000000	
24.082322	497.000000	
24.102044	496.000000	
24.121765	493.000000	
24.141486	546.000000	
24.161208	489.000000	
24.180929	522.000000	
24.200650	557.000000	
24.220372	524.000000	
24.240093	547.000000	
24.259815	594.000000	
24.279536	569.000000	
24.299257	574.000000	
24.318979	582.000000	
24.338700	600.000000	
24.358421	625.000000	
24.378143	622.000000	
24.397864	638.000000	
24.417586	654.000000	
24.437307	668.000000	
24.457028	772.000000	
24.476750	767.000000	
24.496471	771.000000	
24.516192	746.000000	
24.535914	754.000000	
24.555635	730.000000	
24.575356	704.000000	
24.595078	644.000000	
24.614799	627.000000	
24.634521	555.000000	
24.654242	614.000000	
24.673963	527.000000	
24.693685	547.000000	
24.713406	569.000000	
24.733127	513.000000	
24.752849	493.000000	
24.772570	545.000000	
24.792291	497.000000	
24.812013	497.000000	
24.831734	464.000000	
24.851456	487.000000	
24.871177	456.000000	
24.890898	504.000000	
24.910620	508.000000	
24.930341	479.000000	
24.950062	467.000000	
24.969784	502.000000	
24.989505	495.000000	
25.009226	480.000000	
25.028948	474.000000	
25.048669	548.000000	
25.068391	491.000000	
25.088112	470.000000	
25.107833	520.000000	
25.127555	473.000000	
25.147276	508.000000	
25.166997	533.000000	
25.186719	493.000000	
25.206440	552.000000	
25.226161	485.000000	
25.245883	498.000000	
25.265604	508.000000	
25.285326	534.000000	
25.305047	507.000000	
25.324768	469.000000	
25.344490	469.000000	
25.364211	477.000000	
25.383932	485.000000	
25.403654	487.000000	
25.423375	448.000000	
25.443096	534.000000	
25.462818	460.000000	
25.482539	522.000000	
25.502261	428.000000	
25.521982	479.000000	
25.541703	518.000000	
25.561425	528.000000	
25.581146	485.000000	
25.600867	470.000000	
25.620589	460.000000	
25.640310	464.000000	
25.660031	479.000000	
25.679753	519.000000	
25.699474	462.000000	
25.719196	491.000000	
25.738917	494.000000	
25.758638	481.000000	
25.778360	514.000000	
25.798081	463.000000	
25.817802	493.000000	
25.837524	444.000000	
25.857245	459.000000	
25.876966	467.000000	
25.896688	501.000000	
25.916409	493.000000	
25.936131	498.000000	
25.955852	529.000000	
25.975573	452.000000	
25.995295	498.000000	
26.015016	470.000000	
26.034737	472.000000	
26.054459	481.000000	
26.074180	473.000000	
26.093901	449.000000	
26.113623	431.000000	
26.133344	501.000000	
26.153066	473.000000	
26.172787	455.000000	
26.192508	494.000000	
26.212230	504.000000	
26.231951	497.000000	
26.251672	505.000000	
26.271394	467.000000	
26.291115	441.000000	
26.310836	482.000000	
26.330558	470.000000	
26.350279	489.000000	
26.370001	464.000000	
26.389722	465.000000	
26.409443	491.000000	
26.429165	472.000000	
26.448886	512.000000	
26.468607	493.000000	
26.488329	421.000000	
26.508050	497.000000	
26.527771	479.000000	
26.547493	483.000000	
26.567214	488.000000	
26.586936	429.000000	
26.606657	501.000000	
26.626378	510.000000	
26.646100	515.000000	
26.665821	514.000000	
26.685542	497.000000	
26.705264	482.000000	
26.724985	463.000000	
26.744706	452.000000	
26.764428	483.000000	
26.784149	497.000000	
26.803871	497.000000	
26.823592	465.000000	
26.843313	546.000000	
26.863035	492.000000	
26.882756	509.000000	
26.902477	489.000000	
26.922199	501.000000	
26.941920	484.000000	
26.961641	461.000000	
26.981363	450.000000	
27.001084	491.000000	
27.020806	459.000000	
27.040527	431.000000	
27.060248	523.000000	
27.079970	481.000000	
27.099691	457.000000	
27.119412	461.000000	
27.139134	498.000000	
27.158855	455.000000	
27.178576	501.000000	
27.198298	454.000000	
27.218019	488.000000	
27.237741	526.000000	
27.257462	483.000000	
27.277183	501.000000	
27.296905	514.000000	
27.316626	480.000000	
27.336347	467.000000	
27.356069	521.000000	
27.375790	495.000000	
27.395511	462.000000	
27.415233	494.000000	
27.434954	463.000000	
27.454676	467.000000	
27.474397	453.000000	
27.494118	463.000000	
27.513840	449.000000	
27.533561	457.000000	
27.553282	485.000000	
27.573004	483.000000	
27.592725	500.000000	
27.612446	513.000000	
27.632168	476.000000	
27.651889	497.000000	
27.671611	486.000000	
27.691332	479.000000	
27.711053	476.000000	
27.730775	489.000000	
27.750496	521.000000	
27.770217	461.000000	
27.789939	435.000000	
27.809660	519.000000	
27.829381	481.000000	
27.849103	487.000000	
27.868824	479.000000	
27.888546	471.000000	
27.908267	475.000000	
27.927988	480.000000	
27.947710	527.000000	
27.967431	449.000000	
27.987152	452.000000	
28.006874	493.000000	
28.026595	533.000000	
28.046316	493.000000	
28.066038	448.000000	
28.085759	482.000000	
28.105481	430.000000	
28.125202	498.000000	
28.144923	455.000000	
28.164645	538.000000	
28.184366	470.000000	
28.204087	482.000000	
28.223809	444.000000	
28.243530	488.000000	
28.263251	514.000000	
28.282973	490.000000	
28.302694	502.000000	
28.322416	491.000000	
28.342137	447.000000	
28.361858	523.000000	
28.381580	461.000000	
28.401301	490.000000	
28.421022	465.000000	
28.440744	491.000000	
28.460465	451.000000	
28.480186	488.000000	
28.499908	474.000000	
28.519629	517.000000	
28.539351	488.000000	
28.559072	460.000000	
28.578793	504.000000	
28.598515	479.000000	
28.618236	489.000000	
28.637957	488.000000	
28.657679	477.000000	
28.677400	470.000000	
28.697121	445.000000	
28.716843	452.000000	
28.736564	465.000000	
28.756286	492.000000	
28.776007	496.000000	
28.795728	448.000000	
28.815450	463.000000	
28.835171	466.000000	
28.854892	471.000000	
28.874614	487.000000	
28.894335	486.000000	
28.914056	448.000000	
28.933778	435.000000	
28.953499	491.000000	
28.973221	464.000000	
28.992942	494.000000	
29.012663	491.000000	
29.032385	485.000000	
29.052106	484.000000	
29.071827	510.000000	
29.091549	456.000000	
29.111270	454.000000	
29.130991	425.000000	
29.150713	476.000000	
29.170434	460.000000	
29.190156	510.000000	
29.209877	492.000000	
29.229598	466.000000	
29.249320	397.000000	
29.269041	450.000000	
29.288762	431.000000	
29.308484	486.000000	
29.328205	475.000000	
29.347926	502.000000	
29.367648	491.000000	
29.387369	483.000000	
29.407091	464.000000	
29.426812	457.000000	
29.446533	448.000000	
29.466255	467.000000	
29.485976	471.000000	
29.505697	504.000000	
29.525419	449.000000	
29.545140	478.000000	
29.564861	447.000000	
29.584583	451.000000	
29.604304	476.000000	
29.624026	498.000000	
29.643747	489.000000	
29.663468	509.000000	
29.683190	459.000000	
29.702911	456.000000	
29.722632	428.000000	
29.742354	470.000000	
29.762075	460.000000	
29.781796	495.000000	
29.801518	457.000000	
29.821239	493.000000	
29.840961	515.000000	
29.860682	482.000000	
29.880403	501.000000	
29.900125	527.000000	
29.919846	452.000000	
29.939567	542.000000	
29.959289	470.000000	
29.979010	512.000000	
29.998731	488.000000	
30.018453	470.000000	
30.038174	477.000000	
30.057896	470.000000	
30.077617	491.000000	
30.097338	469.000000	
30.117060	543.000000	
30.136781	511.000000	
30.156502	481.000000	
30.176224	531.000000	
30.195945	539.000000	
30.215666	529.000000	
30.235388	561.000000	
30.255109	517.000000	
30.274831	540.000000	
30.294552	552.000000	
30.314273	540.000000	
30.333995	502.000000	
30.353716	542.000000	
30.373437	555.000000	
30.393159	518.000000	
30.412880	510.000000	
30.432601	527.000000	
30.452323	501.000000	
30.472044	489.000000	
30.491766	512.000000	
30.511487	484.000000	
30.531208	486.000000	
30.550930	498.000000	
30.570651	521.000000	
30.590372	483.000000	
30.610094	460.000000	
30.629815	529.000000	
30.649536	465.000000	
30.669258	523.000000	
30.688979	453.000000	
30.708701	480.000000	
30.728422	458.000000	
30.748143	508.000000	
30.767865	477.000000	
30.787586	469.000000	
30.807307	468.000000	
30.827029	472.000000	
30.846750	443.000000	
30.866471	433.000000	
30.886193	505.000000	
30.905914	490.000000	
30.925636	488.000000	
30.945357	446.000000	
30.965078	465.000000	
30.984800	500.000000	
31.004521	446.000000	
31.024242	454.000000	
31.043964	458.000000	
31.063685	453.000000	
31.083406	459.000000	
31.103128	465.000000	
31.122849	480.000000	
31.142571	453.000000	
31.162292	480.000000	
31.182013	499.000000	
31.201735	433.000000	
31.221456	446.000000	
31.241177	484.000000	
31.260899	475.000000	
31.280620	431.000000	
31.300341	449.000000	
31.320063	463.000000	
31.339784	473.000000	
31.359506	474.000000	
31.379227	453.000000	
31.398948	432.000000	
31.418670	482.000000	
31.438391	495.000000	
31.458112	463.000000	
31.477834	484.000000	
31.497555	471.000000	
31.517276	461.000000	
31.536998	470.000000	
31.556719	443.000000	
31.576441	469.000000	
31.596162	432.000000	
31.615883	443.000000	
31.635605	448.000000	
31.655326	476.000000	
31.675047	423.000000	
31.694769	477.000000	
31.714490	502.000000	
31.734211	470.000000	
31.753933	486.000000	
31.773654	446.000000	
31.793376	507.000000	
31.813097	463.000000	
31.832818	488.000000	
31.852540	439.000000	
31.872261	463.000000	
31.891982	461.000000	
31.911704	488.000000	
31.931425	436.000000	
31.951146	452.000000	
31.970868	480.000000	
31.990589	516.000000	
32.010311	429.000000	
32.030032	474.000000	
32.049753	503.000000	
32.069475	458.000000	
32.089196	487.000000	
32.108917	470.000000	
32.128639	457.000000	
32.148360	475.000000	
32.168081	473.000000	
32.187803	483.000000	
32.207524	476.000000	
32.227246	486.000000	
32.246967	458.000000	
32.266688	477.000000	
32.286410	453.000000	
32.306131	477.000000	
32.325852	457.000000	
32.345574	492.000000	
32.365295	499.000000	
32.385016	432.000000	
32.404738	493.000000	
32.424459	514.000000	
32.444181	492.000000	
32.463902	460.000000	
32.483623	471.000000	
32.503345	430.000000	
32.523066	496.000000	
32.542787	531.000000	
32.562509	490.000000	
32.582230	497.000000	
32.601951	475.000000	
32.621673	477.000000	
32.641394	463.000000	
32.661116	430.000000	
32.680837	471.000000	
32.700558	470.000000	
32.720280	445.000000	
32.740001	473.000000	
32.759722	479.000000	
32.779444	479.000000	
32.799165	505.000000	
32.818886	445.000000	
32.838608	468.000000	
32.858329	536.000000	
32.878051	508.000000	
32.897772	499.000000	
32.917493	446.000000	
32.937215	483.000000	
32.956936	415.000000	
32.976657	465.000000	
32.996379	469.000000	
33.016100	457.000000	
33.035821	465.000000	
33.055543	482.000000	
33.075264	490.000000	
33.094986	477.000000	
33.114707	472.000000	
33.134428	478.000000	
33.154150	434.000000	
33.173871	505.000000	
33.193592	509.000000	
33.213314	505.000000	
33.233035	494.000000	
33.252757	538.000000	
33.272478	478.000000	
33.292199	525.000000	
33.311921	530.000000	
33.331642	513.000000	
33.351363	532.000000	
33.371085	549.000000	
33.390806	603.000000	
33.410527	567.000000	
33.430249	584.000000	
33.449970	613.000000	
33.469692	616.000000	
33.489413	684.000000	
33.509134	693.000000	
33.528856	716.000000	
33.548577	765.000000	
33.568298	733.000000	
33.588020	731.000000	
33.607741	706.000000	
33.627462	706.000000	
33.647184	696.000000	
33.666905	716.000000	
33.686627	653.000000	
33.706348	621.000000	
33.726069	588.000000	
33.745791	565.000000	
33.765512	523.000000	
33.785233	505.000000	
33.804955	505.000000	
33.824676	529.000000	
33.844397	520.000000	
33.864119	494.000000	
33.883840	488.000000	
33.903562	459.000000	
33.923283	468.000000	
33.943004	465.000000	
33.962726	484.000000	
33.982447	470.000000	
34.002168	396.000000	
34.021890	507.000000	
34.041611	484.000000	
34.061332	500.000000	
34.081054	463.000000	
34.100775	480.000000	
34.120497	508.000000	
34.140218	505.000000	
34.159939	488.000000	
34.179661	462.000000	
34.199382	447.000000	
34.219103	481.000000	
34.238825	460.000000	
34.258546	475.000000	
34.278267	449.000000	
34.297989	478.000000	
34.317710	476.000000	
34.337432	467.000000	
34.357153	451.000000	
34.376874	481.000000	
34.396596	454.000000	
34.416317	473.000000	
34.436038	429.000000	
34.455760	485.000000	
34.475481	453.000000	
34.495202	496.000000	
34.514924	489.000000	
34.534645	449.000000	
34.554367	441.000000	
34.574088	440.000000	
34.593809	459.000000	
34.613531	467.000000	
34.633252	468.000000	
34.652973	465.000000	
34.672695	424.000000	
34.692416	493.000000	
34.712137	453.000000	
34.731859	483.000000	
34.751580	472.000000	
34.771302	506.000000	
34.791023	481.000000	
34.810744	491.000000	
34.830466	484.000000	
34.850187	486.000000	
34.869908	453.000000	
34.889630	469.000000	
34.909351	479.000000	
34.929072	484.000000	
34.948794	489.000000	
34.968515	427.000000	
34.988237	469.000000	
35.007958	490.000000	
35.027679	452.000000	
35.047401	508.000000	
35.067122	463.000000	
35.086843	447.000000	
35.106565	494.000000	
35.126286	484.000000	
35.146007	486.000000	
35.165729	494.000000	
35.185450	489.000000	
35.205172	491.000000	
35.224893	463.000000	
35.244614	549.000000	
35.264336	515.000000	
35.284057	439.000000	
35.303778	498.000000	
35.323500	486.000000	
35.343221	501.000000	
35.362942	456.000000	
35.382664	514.000000	
35.402385	528.000000	
35.422107	487.000000	
35.441828	541.000000	
35.461549	469.000000	
35.481271	540.000000	
35.500992	515.000000	
35.520713	542.000000	
35.540435	516.000000	
35.560156	515.000000	
35.579877	583.000000	
35.599599	563.000000	
35.619320	566.000000	
35.639042	581.000000	
35.658763	601.000000	
35.678484	601.000000	
35.698206	619.000000	
35.717927	635.000000	
35.737648	579.000000	
35.757370	559.000000	
35.777091	560.000000	
35.796812	574.000000	
35.816534	549.000000	
35.836255	580.000000	
35.855977	522.000000	
35.875698	589.000000	
35.895419	527.000000	
35.915141	543.000000	
35.934862	525.000000	
35.954583	521.000000	
35.974305	556.000000	
35.994026	584.000000	
36.013747	532.000000	
36.033469	584.000000	
36.053190	638.000000	
36.072912	620.000000	
36.092633	618.000000	
36.112354	618.000000	
36.132076	710.000000	
